#K-Path(1/A) Energy-Level(eV)
# NKPTS & NBANDS: 120  64
# Band-Index    1
   0.00000    -12.491092
   0.04067    -12.486356
   0.08133    -12.472166
   0.12200    -12.448582
   0.16266    -12.415701
   0.20333    -12.373665
   0.24399    -12.322661
   0.28466    -12.262928
   0.32533    -12.194763
   0.36599    -12.118526
   0.40666    -12.034650
   0.44732    -11.943655
   0.48799    -11.846154
   0.52866    -11.742871
   0.56932    -11.634655
   0.60999    -11.522493
   0.65065    -11.407524
   0.69132    -11.291051
   0.73198    -11.174540
   0.77265    -11.059611
   0.77265    -11.059611
   0.79026    -11.087933
   0.80787    -11.116023
   0.82548    -11.143745
   0.84309    -11.170977
   0.86069    -11.197603
   0.87830    -11.223521
   0.89591    -11.248633
   0.91352    -11.272854
   0.93113    -11.296103
   0.94874    -11.318307
   0.96635    -11.339401
   0.98396    -11.359325
   1.00157    -11.378024
   1.01917    -11.395448
   1.03678    -11.411553
   1.05439    -11.426300
   1.07200    -11.439651
   1.08961    -11.451576
   1.10722    -11.462044
   1.10722    -11.462044
   1.16004    -11.484478
   1.21287    -11.493082
   1.26570    -11.487559
   1.31852    -11.467809
   1.37135    -11.433925
   1.42418    -11.386195
   1.47700    -11.463725
   1.52983    -11.607284
   1.58266    -11.746371
   1.63548    -11.878134
   1.68831    -12.000341
   1.74114    -12.111262
   1.79396    -12.209554
   1.84679    -12.294185
   1.89962    -12.364368
   1.95244    -12.419511
   2.00527    -12.459185
   2.05809    -12.483101
   2.11092    -12.491092
   2.11092    -12.491092
   2.16073    -12.483989
   2.21053    -12.462730
   2.26034    -12.427462
   2.31014    -12.378441
   2.35995    -12.316049
   2.40975    -12.240808
   2.45956    -12.153424
   2.50936    -12.054821
   2.55917    -11.946206
   2.60897    -11.829151
   2.65878    -11.705690
   2.70858    -11.578457
   2.75839    -11.450825
   2.80820    -11.327057
   2.85800    -11.212389
   2.90781    -11.112942
   2.95761    -11.035306
   3.00742    -10.985670
   3.05722    -10.968565
   3.05722    -10.968565
   3.07755    -10.970165
   3.09789    -10.974940
   3.11822    -10.982822
   3.13855    -10.993697
   3.15889    -11.007411
   3.17922    -11.023778
   3.19955    -11.042583
   3.21988    -11.063590
   3.24022    -11.086546
   3.26055    -11.111192
   3.28088    -11.137264
   3.30122    -11.164498
   3.32155    -11.192637
   3.34188    -11.221431
   3.36222    -11.250640
   3.38255    -11.280037
   3.40288    -11.309408
   3.42321    -11.338554
   3.44355    -11.367287
   3.44355    -11.367287
   3.46388    -11.366339
   3.48421    -11.363497
   3.50455    -11.358770
   3.52488    -11.352172
   3.54521    -11.343725
   3.56554    -11.333456
   3.58588    -11.321397
   3.60621    -11.307588
   3.62654    -11.292078
   3.64688    -11.274919
   3.66721    -11.256175
   3.68754    -11.235916
   3.70787    -11.214222
   3.72821    -11.191180
   3.74854    -11.166890
   3.76887    -11.141462
   3.78921    -11.115015
   3.80954    -11.087683
   3.82987    -11.059611
 
# Band-Index    2
   3.82987    -11.059611
   3.80954    -11.087683
   3.78921    -11.115015
   3.76887    -11.141462
   3.74854    -11.166890
   3.72821    -11.191180
   3.70787    -11.214222
   3.68754    -11.235916
   3.66721    -11.256175
   3.64688    -11.274919
   3.62654    -11.292078
   3.60621    -11.307588
   3.58588    -11.321397
   3.56554    -11.333456
   3.54521    -11.343725
   3.52488    -11.352172
   3.50455    -11.358770
   3.48421    -11.363497
   3.46388    -11.366339
   3.44355    -11.367287
   3.44355    -11.367287
   3.42321    -11.338554
   3.40288    -11.309408
   3.38255    -11.280037
   3.36222    -11.250640
   3.34188    -11.221431
   3.32155    -11.192637
   3.30122    -11.164498
   3.28088    -11.137264
   3.26055    -11.111192
   3.24022    -11.086546
   3.21988    -11.063590
   3.19955    -11.042583
   3.17922    -11.023778
   3.15889    -11.007411
   3.13855    -10.993697
   3.11822    -10.982822
   3.09789    -10.974940
   3.07755    -10.970165
   3.05722    -10.968565
   3.05722    -10.968565
   3.00742    -10.965441
   2.95761    -10.956081
   2.90781    -10.940513
   2.85800    -10.918801
   2.80820    -10.891059
   2.75839    -10.857470
   2.70858    -10.818323
   2.65878    -10.774040
   2.60897    -10.725220
   2.55917    -10.672679
   2.50936    -10.617495
   2.45956    -10.561045
   2.40975    -10.505036
   2.35995    -10.451503
   2.31014    -10.402759
   2.26034    -10.361278
   2.21053    -10.329482
   2.16073    -10.309450
   2.11092    -10.302604
   2.11092    -10.302604
   2.05809    -10.318783
   2.00527    -10.365519
   1.95244    -10.438010
   1.89962    -10.529810
   1.84679    -10.634208
   1.79396    -10.745109
   1.74114    -10.857407
   1.68831    -10.967016
   1.63548    -11.070755
   1.58266    -11.166180
   1.52983    -11.251433
   1.47700    -11.325117
   1.42418    -11.319315
   1.37135    -11.178559
   1.31852    -11.046887
   1.26570    -10.930481
   1.21287    -10.849728
   1.16004    -10.891035
   1.10722    -10.929768
   1.10722    -10.929768
   1.08961    -10.941940
   1.07200    -10.953682
   1.05439    -10.964960
   1.03678    -10.975741
   1.01917    -10.985991
   1.00157    -10.995680
   0.98396    -11.004778
   0.96635    -11.013256
   0.94874    -11.021089
   0.93113    -11.028252
   0.91352    -11.034722
   0.89591    -11.040480
   0.87830    -11.045508
   0.86069    -11.049789
   0.84309    -11.053310
   0.82548    -11.056060
   0.80787    -11.058030
   0.79026    -11.059215
   0.77265    -11.059611
   0.77265    -11.059611
   0.73198    -11.055650
   0.69132    -11.043812
   0.65065    -11.024232
   0.60999    -10.997140
   0.56932    -10.962868
   0.52866    -10.921866
   0.48799    -10.874716
   0.44732    -10.822152
   0.40666    -10.765084
   0.36599    -10.704629
   0.32533    -10.642132
   0.28466    -10.579197
   0.24399    -10.517692
   0.20333    -10.459739
   0.16266    -10.407654
   0.12200    -10.363829
   0.08133    -10.330539
   0.04067    -10.309702
   0.00000    -10.302604
 
# Band-Index    3
   0.00000    -10.302604
   0.04067    -10.309702
   0.08133    -10.330539
   0.12200    -10.363829
   0.16266    -10.407654
   0.20333    -10.459739
   0.24399    -10.517692
   0.28466    -10.579197
   0.32533    -10.642132
   0.36599    -10.704629
   0.40666    -10.765084
   0.44732    -10.822152
   0.48799    -10.874716
   0.52866    -10.921866
   0.56932    -10.962868
   0.60999    -10.997140
   0.65065    -11.024232
   0.69132    -11.043812
   0.73198    -11.055650
   0.77265    -11.059611
   0.77265    -11.059611
   0.79026    -11.059215
   0.80787    -11.058030
   0.82548    -11.056060
   0.84309    -11.053310
   0.86069    -11.049789
   0.87830    -11.045508
   0.89591    -11.040480
   0.91352    -11.034722
   0.93113    -11.028252
   0.94874    -11.021089
   0.96635    -11.013256
   0.98396    -11.004778
   1.00157    -10.995680
   1.01917    -10.985991
   1.03678    -10.975741
   1.05439    -10.964960
   1.07200    -10.953682
   1.08961    -10.941940
   1.10722    -10.929768
   1.10722    -10.929768
   1.16004    -10.891035
   1.21287    -10.849728
   1.26570    -10.806795
   1.31852    -10.763103
   1.37135    -10.719387
   1.42418    -10.676211
   1.47700    -10.633967
   1.52983    -10.592893
   1.58266    -10.553128
   1.63548    -10.514776
   1.68831    -10.477985
   1.74114    -10.443017
   1.79396    -10.410298
   1.84679    -10.380437
   1.89962    -10.354209
   1.95244    -10.332495
   2.00527    -10.316185
   2.05809    -10.306046
   2.11092    -10.302604
   2.11092    -10.302604
   2.16073    -10.309450
   2.21053    -10.329482
   2.26034    -10.361278
   2.31014    -10.402759
   2.35995    -10.451503
   2.40975    -10.505036
   2.45956    -10.561045
   2.50936    -10.617495
   2.55917    -10.672679
   2.60897    -10.725220
   2.65878    -10.774040
   2.70858    -10.818323
   2.75839    -10.857470
   2.80820    -10.891059
   2.85800    -10.918801
   2.90781    -10.940513
   2.95761    -10.956081
   3.00742    -10.965441
   3.05722    -10.968565
   3.05722    -10.968565
   3.07755    -10.967620
   3.09789    -10.964788
   3.11822    -10.960078
   3.13855    -10.953505
   3.15889    -10.945088
   3.17922    -10.934855
   3.19955    -10.922840
   3.21988    -10.909081
   3.24022    -10.893627
   3.26055    -10.876531
   3.28088    -10.857855
   3.30122    -10.837670
   3.32155    -10.816055
   3.34188    -10.793097
   3.36222    -10.768897
   3.38255    -10.743562
   3.40288    -10.717213
   3.42321    -10.689981
   3.44355    -10.662012
   3.44355    -10.662012
   3.46388    -10.663607
   3.48421    -10.668369
   3.50455    -10.676228
   3.52488    -10.687071
   3.54521    -10.700746
   3.56554    -10.717066
   3.58588    -10.735817
   3.60621    -10.756764
   3.62654    -10.779655
   3.64688    -10.804231
   3.66721    -10.830228
   3.68754    -10.857385
   3.70787    -10.885445
   3.72821    -10.914157
   3.74854    -10.943285
   3.76887    -10.972600
   3.78921    -11.001890
   3.80954    -11.030956
   3.82987    -11.059611
 
# Band-Index    4
   3.82987    -11.059611
   3.80954    -11.030956
   3.78921    -11.001890
   3.76887    -10.972600
   3.74854    -10.943285
   3.72821    -10.914157
   3.70787    -10.885445
   3.68754    -10.857385
   3.66721    -10.830228
   3.64688    -10.804231
   3.62654    -10.779655
   3.60621    -10.756764
   3.58588    -10.735817
   3.56554    -10.717066
   3.54521    -10.700746
   3.52488    -10.687071
   3.50455    -10.676228
   3.48421    -10.668369
   3.46388    -10.663607
   3.44355    -10.662012
   3.44355    -10.662012
   3.42321    -10.689981
   3.40288    -10.717213
   3.38255    -10.743562
   3.36222    -10.768897
   3.34188    -10.793097
   3.32155    -10.816055
   3.30122    -10.837670
   3.28088    -10.857855
   3.26055    -10.876531
   3.24022    -10.893627
   3.21988    -10.909081
   3.19955    -10.922840
   3.17922    -10.934855
   3.15889    -10.945088
   3.13855    -10.953505
   3.11822    -10.960078
   3.09789    -10.964788
   3.07755    -10.967620
   3.05722    -10.968565
   3.05722    -10.968565
   3.00742    -10.965441
   2.95761    -10.956081
   2.90781    -10.940513
   2.85800    -10.918801
   2.80820    -10.891059
   2.75839    -10.857470
   2.70858    -10.818323
   2.65878    -10.774040
   2.60897    -10.725220
   2.55917    -10.672679
   2.50936    -10.617495
   2.45956    -10.561045
   2.40975    -10.505036
   2.35995    -10.451503
   2.31014    -10.402759
   2.26034    -10.361278
   2.21053    -10.329482
   2.16073    -10.309450
   2.11092    -10.302604
   2.11092    -10.302604
   2.05809    -10.306046
   2.00527    -10.316185
   1.95244    -10.332495
   1.89962    -10.354209
   1.84679    -10.380437
   1.79396    -10.410298
   1.74114    -10.443017
   1.68831    -10.477985
   1.63548    -10.514776
   1.58266    -10.553128
   1.52983    -10.592893
   1.47700    -10.633967
   1.42418    -10.676211
   1.37135    -10.719387
   1.31852    -10.763103
   1.26570    -10.806795
   1.21287    -10.835756
   1.16004    -10.768400
   1.10722    -10.732129
   1.10722    -10.732129
   1.08961    -10.727168
   1.07200    -10.725713
   1.05439    -10.727666
   1.03678    -10.732896
   1.01917    -10.741237
   1.00157    -10.752496
   0.98396    -10.766462
   0.96635    -10.782904
   0.94874    -10.801584
   0.93113    -10.822256
   0.91352    -10.844676
   0.89591    -10.868601
   0.87830    -10.893795
   0.86069    -10.920030
   0.84309    -10.947088
   0.82548    -10.974764
   0.80787    -11.002862
   0.79026    -11.031201
   0.77265    -11.059611
   0.77265    -11.059611
   0.73198    -10.948008
   0.69132    -10.841546
   0.65065    -10.742026
   0.60999    -10.651121
   0.56932    -10.570238
   0.52866    -10.500392
   0.48799    -10.442087
   0.44732    -10.395267
   0.40666    -10.359332
   0.36599    -10.333216
   0.32533    -10.315523
   0.28466    -10.304677
   0.24399    -10.299060
   0.20333    -10.297133
   0.16266    -10.297517
   0.12200    -10.299047
   0.08133    -10.300802
   0.04067    -10.302121
   0.00000    -10.302604
 
# Band-Index    5
   0.00000     -6.734573
   0.04067     -6.732433
   0.08133     -6.726054
   0.12200     -6.715580
   0.16266     -6.701217
   0.20333     -6.683192
   0.24399     -6.661682
   0.28466     -6.636713
   0.32533     -6.608039
   0.36599     -6.575022
   0.40666     -6.536544
   0.44732     -6.490993
   0.48799     -6.436357
   0.52866     -6.370427
   0.56932     -6.291046
   0.60999     -6.196338
   0.65065     -6.084877
   0.69132     -5.955742
   0.73198     -5.808496
   0.77265     -5.643102
   0.77265     -5.643102
   0.79026     -5.688311
   0.80787     -5.736442
   0.82548     -5.786985
   0.84309     -5.839350
   0.86069     -5.892896
   0.87830     -5.946948
   0.89591     -6.000821
   0.91352     -6.053829
   0.93113     -6.105301
   0.94874     -6.154590
   0.96635     -6.201077
   0.98396     -6.244178
   1.00157     -6.283348
   1.01917     -6.318085
   1.03678     -6.347932
   1.05439     -6.372480
   1.07200     -6.391372
   1.08961     -6.404306
   1.10722     -6.411036
   1.10722     -6.411036
   1.16004     -6.392414
   1.21287     -6.314545
   1.26570     -6.345828
   1.31852     -6.378516
   1.37135     -6.395336
   1.42418     -6.399210
   1.47700     -6.394595
   1.52983     -6.387305
   1.58266     -6.383902
   1.63548     -6.390528
   1.68831     -6.411345
   1.74114     -6.447250
   1.79396     -6.495631
   1.84679     -6.551280
   1.89962     -6.607839
   1.95244     -6.659071
   2.00527     -6.699663
   2.05809     -6.725643
   2.11092     -6.734573
   2.11092     -6.734573
   2.16073     -6.721887
   2.21053     -6.684922
   2.26034     -6.626940
   2.31014     -6.553205
   2.35995     -6.470774
   2.40975     -6.388155
   2.45956     -6.314608
   2.50936     -6.258806
   2.55917     -6.226910
   2.60897     -6.220877
   2.65878     -6.238133
   2.70858     -6.272882
   2.75839     -6.318078
   2.80820     -6.366980
   2.85800     -6.413927
   2.90781     -6.454542
   2.95761     -6.485649
   3.00742     -6.505122
   3.05722     -6.511745
   3.05722     -6.511745
   3.07755     -6.511188
   3.09789     -6.509525
   3.11822     -6.506779
   3.13855     -6.502988
   3.15889     -6.498205
   3.17922     -6.492499
   3.19955     -6.485958
   3.21988     -6.478684
   3.24022     -6.470801
   3.26055     -6.462448
   3.28088     -6.453787
   3.30122     -6.444995
   3.32155     -6.436271
   3.34188     -6.427833
   3.36222     -6.419910
   3.38255     -6.412750
   3.40288     -6.406603
   3.42321     -6.401723
   3.44355     -6.398352
   3.44355     -6.398352
   3.46388     -6.395163
   3.48421     -6.385639
   3.50455     -6.369904
   3.52488     -6.348163
   3.54521     -6.320701
   3.56554     -6.287876
   3.58588     -6.250120
   3.60621     -6.207929
   3.62654     -6.161862
   3.64688     -6.112540
   3.66721     -6.060634
   3.68754     -6.006864
   3.70787     -5.951990
   3.72821     -5.896798
   3.74854     -5.842088
   3.76887     -5.788647
   3.78921     -5.737228
   3.80954     -5.688517
   3.82987     -5.643102
 
# Band-Index    6
   3.82987     -5.643102
   3.80954     -5.688517
   3.78921     -5.737228
   3.76887     -5.788647
   3.74854     -5.842088
   3.72821     -5.896798
   3.70787     -5.951990
   3.68754     -6.006864
   3.66721     -6.060634
   3.64688     -6.112540
   3.62654     -6.161862
   3.60621     -6.207929
   3.58588     -6.250120
   3.56554     -6.287876
   3.54521     -6.320701
   3.52488     -6.348163
   3.50455     -6.369904
   3.48421     -6.385639
   3.46388     -6.395163
   3.44355     -6.398352
   3.44355     -6.398352
   3.42321     -6.401723
   3.40288     -6.406603
   3.38255     -6.412750
   3.36222     -6.419910
   3.34188     -6.427833
   3.32155     -6.436271
   3.30122     -6.444995
   3.28088     -6.453787
   3.26055     -6.462448
   3.24022     -6.470801
   3.21988     -6.478684
   3.19955     -6.485958
   3.17922     -6.492499
   3.15889     -6.498205
   3.13855     -6.502988
   3.11822     -6.506779
   3.09789     -6.509525
   3.07755     -6.511188
   3.05722     -6.511745
   3.05722     -6.511745
   3.00742     -6.505122
   2.95761     -6.485649
   2.90781     -6.454542
   2.85800     -6.413927
   2.80820     -6.366980
   2.75839     -6.318078
   2.70858     -6.272882
   2.65878     -6.238133
   2.60897     -6.220877
   2.55917     -6.226910
   2.50936     -6.258806
   2.45956     -6.314608
   2.40975     -6.388155
   2.35995     -6.470774
   2.31014     -6.553205
   2.26034     -6.626940
   2.21053     -6.684922
   2.16073     -6.721887
   2.11092     -6.734573
   2.11092     -6.734573
   2.05809     -6.725643
   2.00527     -6.699663
   1.95244     -6.659071
   1.89962     -6.607839
   1.84679     -6.551280
   1.79396     -6.495631
   1.74114     -6.447250
   1.68831     -6.411345
   1.63548     -6.390528
   1.58266     -6.383902
   1.52983     -6.387305
   1.47700     -6.394595
   1.42418     -6.399210
   1.37135     -6.395336
   1.31852     -6.378516
   1.26570     -6.345828
   1.21287     -6.295871
   1.16004     -6.228707
   1.10722     -6.145858
   1.10722     -6.145858
   1.08961     -6.115245
   1.07200     -6.083380
   1.05439     -6.050446
   1.03678     -6.016654
   1.01917     -5.982246
   1.00157     -5.947492
   0.98396     -5.912700
   0.96635     -5.878209
   0.94874     -5.844397
   0.93113     -5.811680
   0.91352     -5.780502
   0.89591     -5.751341
   0.87830     -5.724689
   0.86069     -5.701044
   0.84309     -5.680893
   0.82548     -5.664682
   0.80787     -5.652799
   0.79026     -5.645543
   0.77265     -5.643102
   0.77265     -5.643102
   0.73198     -5.646517
   0.69132     -5.656952
   0.65065     -5.674967
   0.60999     -5.701419
   0.56932     -5.737353
   0.52866     -5.783809
   0.48799     -5.841585
   0.44732     -5.910952
   0.40666     -5.991386
   0.36599     -6.081392
   0.32533     -6.178468
   0.28466     -6.279219
   0.24399     -6.379587
   0.20333     -6.475128
   0.16266     -6.561302
   0.12200     -6.633765
   0.08133     -6.688661
   0.04067     -6.722925
   0.00000     -6.734573
 
# Band-Index    7
   0.00000     -6.734573
   0.04067     -6.722925
   0.08133     -6.688661
   0.12200     -6.633765
   0.16266     -6.561302
   0.20333     -6.475128
   0.24399     -6.379587
   0.28466     -6.279219
   0.32533     -6.178468
   0.36599     -6.081392
   0.40666     -5.991386
   0.44732     -5.910952
   0.48799     -5.841585
   0.52866     -5.783809
   0.56932     -5.737353
   0.60999     -5.701419
   0.65065     -5.674967
   0.69132     -5.656952
   0.73198     -5.646517
   0.77265     -5.643102
   0.77265     -5.643102
   0.79026     -5.645543
   0.80787     -5.652799
   0.82548     -5.664682
   0.84309     -5.680893
   0.86069     -5.701044
   0.87830     -5.724689
   0.89591     -5.751341
   0.91352     -5.780502
   0.93113     -5.811680
   0.94874     -5.844397
   0.96635     -5.878209
   0.98396     -5.912700
   1.00157     -5.947492
   1.01917     -5.982246
   1.03678     -6.016654
   1.05439     -6.050446
   1.07200     -6.083380
   1.08961     -6.115245
   1.10722     -6.145858
   1.10722     -6.145858
   1.16004     -6.228707
   1.21287     -6.295871
   1.26570     -6.179283
   1.31852     -5.991111
   1.37135     -5.755741
   1.42418     -5.479042
   1.47700     -5.395704
   1.52983     -5.437413
   1.58266     -5.503915
   1.63548     -5.599668
   1.68831     -5.725200
   1.74114     -5.876000
   1.79396     -6.043157
   1.84679     -6.215137
   1.89962     -6.379500
   1.95244     -6.523990
   2.00527     -6.637241
   2.05809     -6.709645
   2.11092     -6.734573
   2.11092     -6.734573
   2.16073     -6.721887
   2.21053     -6.684922
   2.26034     -6.626940
   2.31014     -6.553205
   2.35995     -6.470774
   2.40975     -6.388155
   2.45956     -6.314608
   2.50936     -6.258806
   2.55917     -6.226910
   2.60897     -6.220877
   2.65878     -6.238133
